 splib07a Record=18: Wavelengths BECK Beckman 0.2-3.0 microns
 2.0510000e-001
 2.1310002e-001
 2.2110000e-001
 2.2910000e-001
 2.3610000e-001
 2.4210002e-001
 2.4810001e-001
 2.5360000e-001
 2.5860000e-001
 2.6359999e-001
 2.6859999e-001
 2.7309999e-001
 2.7710000e-001
 2.8109998e-001
 2.8509998e-001
 2.8909999e-001
 2.9310000e-001
 2.9710001e-001
 3.0109999e-001
 3.0509999e-001
 3.0910000e-001
 3.1309998e-001
 3.1709999e-001
 3.2110000e-001
 3.2510000e-001
 3.2910001e-001
 3.3309999e-001
 3.3710000e-001
 3.4109998e-001
 3.4509999e-001
 3.4909999e-001
 3.5310000e-001
 3.5710001e-001
 3.6060002e-001
 3.6360002e-001
 3.6660004e-001
 3.6960003e-001
 3.7260002e-001
 3.7560001e-001
 3.7860000e-001
 3.8109997e-001
 3.8309997e-001
 3.8509998e-001
 3.8709998e-001
 3.8909999e-001
 3.9109999e-001
 3.9309999e-001
 3.9510000e-001
 3.9710000e-001
 3.9910001e-001
 4.0109998e-001
 4.0309998e-001
 4.0509999e-001
 4.0709999e-001
 4.0910000e-001
 4.1109997e-001
 4.1280001e-001
 4.1580001e-001
 4.1880000e-001
 4.2180002e-001
 4.2480004e-001
 4.2780003e-001
 4.3080002e-001
 4.3380001e-001
 4.3680003e-001
 4.3980002e-001
 4.4280002e-001
 4.4580001e-001
 4.4880000e-001
 4.5130000e-001
 4.5330000e-001
 4.5530000e-001
 4.5730001e-001
 4.5930001e-001
 4.6129999e-001
 4.6329999e-001
 4.6529999e-001
 4.6730000e-001
 4.6930000e-001
 4.7129998e-001
 4.7329998e-001
 4.7529998e-001
 4.7729999e-001
 4.7929999e-001
 4.8130000e-001
 4.8330000e-001
 4.8530000e-001
 4.8730001e-001
 4.8930001e-001
 4.9129999e-001
 4.9329999e-001
 4.9529999e-001
 4.9730000e-001
 4.9930000e-001
 5.0129998e-001
 5.0330001e-001
 5.0529999e-001
 5.0730002e-001
 5.0929999e-001
 5.1129997e-001
 5.1330000e-001
 5.1529998e-001
 5.1730001e-001
 5.1929998e-001
 5.2129996e-001
 5.2329999e-001
 5.2529997e-001
 5.2730000e-001
 5.2929997e-001
 5.3129995e-001
 5.3329998e-001
 5.3529996e-001
 5.3729999e-001
 5.3929996e-001
 5.4130000e-001
 5.4330003e-001
 5.4530001e-001
 5.4730004e-001
 5.4930001e-001
 5.5129999e-001
 5.5330002e-001
 5.5530000e-001
 5.5730003e-001
 5.5930001e-001
 5.6129998e-001
 5.6330001e-001
 5.6529999e-001
 5.6730002e-001
 5.6930000e-001
 5.7129997e-001
 5.7330000e-001
 5.7529998e-001
 5.7730001e-001
 5.7929999e-001
 5.8129996e-001
 5.8329999e-001
 5.8529997e-001
 5.8730000e-001
 5.8929998e-001
 5.9130001e-001
 5.9330004e-001
 5.9530002e-001
 5.9730005e-001
 5.9930003e-001
 6.0110003e-001
 6.0270000e-001
 6.0430002e-001
 6.0589999e-001
 6.0750008e-001
 6.0910004e-001
 6.1070001e-001
 6.1229998e-001
 6.1390001e-001
 6.1550003e-001
 6.1710006e-001
 6.1870003e-001
 6.2029999e-001
 6.2189996e-001
 6.2350005e-001
 6.2510002e-001
 6.2669998e-001
 6.2830001e-001
 6.2989998e-001
 6.3169998e-001
 6.3370001e-001
 6.3569999e-001
 6.3770002e-001
 6.3970000e-001
 6.4170003e-001
 6.4370006e-001
 6.4570004e-001
 6.4770007e-001
 6.4970005e-001
 6.5170002e-001
 6.5370005e-001
 6.5570003e-001
 6.5770006e-001
 6.5970004e-001
 6.6170001e-001
 6.6370004e-001
 6.6570002e-001
 6.6770005e-001
 6.7019999e-001
 6.7320001e-001
 6.7619997e-001
 6.7919999e-001
 6.8219995e-001
 6.8519998e-001
 6.8820000e-001
 6.9120002e-001
 6.9420004e-001
 6.9720006e-001
 7.0019996e-001
 7.0199996e-001
 7.0400000e-001
 7.0599997e-001
 7.0800000e-001
 7.0999998e-001
 7.1199995e-001
 7.1399999e-001
 7.1599996e-001
 7.1799999e-001
 7.1999997e-001
 7.2199994e-001
 7.2399998e-001
 7.2599995e-001
 7.2799999e-001
 7.2999996e-001
 7.3199993e-001
 7.3399997e-001
 7.3599994e-001
 7.3799998e-001
 7.4000001e-001
 7.4199998e-001
 7.4400002e-001
 7.4599999e-001
 7.4800003e-001
 7.5050002e-001
 7.5350004e-001
 7.5650001e-001
 7.5950003e-001
 7.6249999e-001
 7.6550001e-001
 7.6850003e-001
 7.7149999e-001
 7.7450001e-001
 7.7750003e-001
 7.8099996e-001
 7.8499997e-001
 7.8899997e-001
 7.9299998e-001
 7.9699999e-001
 8.0150002e-001
 8.0650002e-001
 8.1150001e-001
 8.1650001e-001
 8.2199997e-001
 8.2800001e-001
 8.3499998e-001
 8.4300005e-001
 8.5100001e-001
 8.5900003e-001
 8.7099999e-001
 8.8300002e-001
 8.9399999e-001
 9.0399998e-001
 9.1399997e-001
 9.2399997e-001
 9.3299997e-001
 9.4099998e-001
 9.4900000e-001
 9.5700002e-001
 9.6399999e-001
 9.6999997e-001
 9.7599995e-001
 9.8199993e-001
 9.8799998e-001
 9.9400002e-001
 1.0000000e+000
 1.0060000e+000
 1.0120000e+000
 1.0180000e+000
 1.0235000e+000
 1.0285000e+000
 1.0335000e+000
 1.0385000e+000
 1.0434999e+000
 1.0484999e+000
 1.0534999e+000
 1.0584999e+000
 1.0634999e+000
 1.0684999e+000
 1.0735000e+000
 1.0785000e+000
 1.0835000e+000
 1.0885000e+000
 1.0935000e+000
 1.0985000e+000
 1.1035000e+000
 1.1085000e+000
 1.1135000e+000
 1.1185000e+000
 1.1235000e+000
 1.1285000e+000
 1.1335000e+000
 1.1385000e+000
 1.1435000e+000
 1.1485000e+000
 1.1535000e+000
 1.1585000e+000
 1.1635000e+000
 1.1684999e+000
 1.1735001e+000
 1.1785001e+000
 1.1835001e+000
 1.1885000e+000
 1.1935000e+000
 1.1985000e+000
 1.2035000e+000
 1.2085000e+000
 1.2135000e+000
 1.2185000e+000
 1.2235000e+000
 1.2285000e+000
 1.2335000e+000
 1.2385000e+000
 1.2435000e+000
 1.2485000e+000
 1.2535000e+000
 1.2585000e+000
 1.2635000e+000
 1.2685000e+000
 1.2735001e+000
 1.2785001e+000
 1.2835001e+000
 1.2885001e+000
 1.2935001e+000
 1.2985001e+000
 1.3034999e+000
 1.3084999e+000
 1.3134999e+000
 1.3184999e+000
 1.3234999e+000
 1.3284999e+000
 1.3334999e+000
 1.3384999e+000
 1.3434999e+000
 1.3484999e+000
 1.3534999e+000
 1.3584999e+000
 1.3634999e+000
 1.3684999e+000
 1.3735000e+000
 1.3785000e+000
 1.3835000e+000
 1.3885000e+000
 1.3935000e+000
 1.3985000e+000
 1.4035000e+000
 1.4085000e+000
 1.4135000e+000
 1.4184999e+000
 1.4234999e+000
 1.4284999e+000
 1.4334999e+000
 1.4384999e+000
 1.4434999e+000
 1.4484999e+000
 1.4534999e+000
 1.4584999e+000
 1.4634999e+000
 1.4684999e+000
 1.4735000e+000
 1.4785000e+000
 1.4835000e+000
 1.4885000e+000
 1.4935000e+000
 1.4985000e+000
 1.5035000e+000
 1.5085000e+000
 1.5135000e+000
 1.5185000e+000
 1.5235000e+000
 1.5285000e+000
 1.5339999e+000
 1.5400000e+000
 1.5460000e+000
 1.5519999e+000
 1.5580000e+000
 1.5639999e+000
 1.5705000e+000
 1.5775000e+000
 1.5845000e+000
 1.5915000e+000
 1.5985000e+000
 1.6055000e+000
 1.6125000e+000
 1.6194999e+000
 1.6265000e+000
 1.6335000e+000
 1.6404999e+000
 1.6474999e+000
 1.6544999e+000
 1.6615000e+000
 1.6684999e+000
 1.6760001e+000
 1.6840000e+000
 1.6920000e+000
 1.7000000e+000
 1.7080001e+000
 1.7160001e+000
 1.7240000e+000
 1.7320000e+000
 1.7400000e+000
 1.7480000e+000
 1.7560000e+000
 1.7639999e+000
 1.7720001e+000
 1.7800001e+000
 1.7880001e+000
 1.7960001e+000
 1.8049999e+000
 1.8149999e+000
 1.8249999e+000
 1.8349999e+000
 1.8449999e+000
 1.8549999e+000
 1.8649999e+000
 1.8750000e+000
 1.8850000e+000
 1.8950000e+000
 1.9050000e+000
 1.9150000e+000
 1.9250000e+000
 1.9349999e+000
 1.9449999e+000
 1.9549999e+000
 1.9649999e+000
 1.9750000e+000
 1.9850000e+000
 1.9950000e+000
 2.0050001e+000
 2.0150001e+000
 2.0250001e+000
 2.0350001e+000
 2.0450001e+000
 2.0550001e+000
 2.0650001e+000
 2.0750000e+000
 2.0850000e+000
 2.0950000e+000
 2.1050000e+000
 2.1150000e+000
 2.1250000e+000
 2.1350000e+000
 2.1450000e+000
 2.1550000e+000
 2.1650000e+000
 2.1750000e+000
 2.1849999e+000
 2.1949999e+000
 2.2050002e+000
 2.2150002e+000
 2.2250001e+000
 2.2350001e+000
 2.2450001e+000
 2.2550001e+000
 2.2650001e+000
 2.2750001e+000
 2.2850001e+000
 2.2950001e+000
 2.3050001e+000
 2.3150001e+000
 2.3250000e+000
 2.3350000e+000
 2.3450000e+000
 2.3550000e+000
 2.3650000e+000
 2.3750000e+000
 2.3859999e+000
 2.4000001e+000
 2.4180000e+000
 2.4400001e+000
 2.4660001e+000
 2.4960001e+000
 2.5279999e+000
 2.5599999e+000
 2.5920000e+000
 2.6239998e+000
 2.6559999e+000
 2.6879997e+000
 2.7200000e+000
 2.7520001e+000
 2.7839999e+000
 2.8160000e+000
 2.8479998e+000
 2.8799999e+000
 2.9120002e+000
 2.9440000e+000
 2.9760001e+000
